Time: 12/5/2024 1:12:22 PM
Signal amplitude: 1.000 V
Lock-in periods: 100
Minimum integration time: 10 s
Sampling rate: 312500 Hz
Measurement range: ±0.5 V
Measurement mode: Standard Measurement
Notes: 

Chip name: E19-W07-3J06-Chamber Custom under Vacuum
Substrate λ: 1.120000 W/(m·K)
Δ(Substrate λ): 0.050000 W/(m·K)
Substrate T0: 25.000 °C
Substrate λ T-coeff: 0.001300 W/(m·K^2)
Substrate α: 6.8E-07 m^2/s
Δ(Substrate α): 5E-08 m^2/s
Passivation λ: 2.700000 W/(m·K)
Δ(Passivation λ): 0.050000 W/(m·K)
Passivation α: 6E-07 m^2/s
Δ(Passivation α): 5E-08 m^2/s
T0: 23.000 °C
Sensor definitions: 3
Active sensors: 1

Sensor name: #1
dR/dT: 0.1213 Ω/K
Δ(dR/dT): 0.0055 Ω/K
R0: 34.874347 Ω
Width: 5 µm
Length: 1000 µm
R sensor: 35.512 Ω
R potentiometer: 35.512 Ω
Pot adjust state: Inactive
R reference: 10 Ω
Δ(R reference): 0.01 Ω
Manual frequency minimum:        9.550 Hz
Manual frequency maximum:     1047.129 Hz
    Time	   Frequency	              Re(1ω)	              Im(1ω)	              Re(3ω)	              Im(3ω)	           Phase(1ω)	           Phase(3ω)	      Vref	   Current	    Re(ΔT)	   Δ[Re(ΔT)]	    Im(ΔT)	   Δ[Im(ΔT)]	     Power	Temperature
        	          Hz	               V rms	               V rms	               V rms	               V rms	                   °	                   °	     V rms	     A rms	         K	           K	         K	           K	         W	         °C
1:12:22 PM	      10.000	   0.184724787326510	  -0.000000000000004	   0.000259458203900	  -0.000065765102465	  -0.000000000001145	 -14.223259465374566	  0.051985	  0.005199	  0.822999	    0.000000	 -0.208606	    0.009453	  0.000960	      28.44	
1:12:34 PM	      12.743	   0.184715722351868	  -0.000000000000000	   0.000249251300204	  -0.000065299939514	  -0.000000000000067	 -14.680660324529777	  0.051985	  0.005199	  0.790626	    0.000000	 -0.207132	    0.009386	  0.000960	      28.43	
1:12:45 PM	      16.238	   0.184715368358800	   0.000000000000002	   0.000239115238732	  -0.000064891077687	   0.000000000000489	 -15.183241726349976	  0.051983	  0.005198	  0.758506	    0.000000	 -0.205843	    0.009328	  0.000960	      28.44	
1:12:56 PM	      20.691	   0.184711068421265	   0.000000000000004	   0.000229173992001	  -0.000064468162656	   0.000000000001184	 -15.711644434433611	  0.051984	  0.005198	  0.726955	    0.000000	 -0.204497	    0.009267	  0.000960	      28.42	
1:13:08 PM	      26.367	   0.184700183686908	   0.000000000000009	   0.000219011507193	  -0.000064095080802	   0.000000000002679	 -16.312443199559329	  0.051983	  0.005198	  0.694730	    0.000000	 -0.203317	    0.009213	  0.000960	      28.41	
1:13:19 PM	      33.598	   0.184686085354330	   0.000000000000010	   0.000209058432494	  -0.000063772915067	   0.000000000003136	 -16.964236617672942	  0.051984	  0.005198	  0.663146	    0.000000	 -0.202291	    0.009167	  0.000960	      28.38	
1:13:30 PM	      42.813	   0.184679527364621	   0.000000000000015	   0.000199345608739	  -0.000063326265502	   0.000000000004804	 -17.623529292806932	  0.051984	  0.005198	  0.632337	    0.000000	 -0.200875	    0.009103	  0.000960	      28.37	
1:13:42 PM	      54.556	   0.184672920287978	   0.000000000000008	   0.000189478459093	  -0.000062858288934	   0.000000000002495	 -18.352939463262143	  0.051987	  0.005199	  0.600998	    0.000000	 -0.199377	    0.009035	  0.000960	      28.34	
1:13:53 PM	      69.519	   0.184664440450036	   0.000000000000007	   0.000179856416220	  -0.000062389967910	   0.000000000002114	 -19.131028125885393	  0.051990	  0.005199	  0.570453	    0.000000	 -0.197883	    0.008967	  0.000960	      28.32	
1:14:04 PM	      88.587	   0.184658430160650	   0.000000000000003	   0.000170092620053	  -0.000061743586449	   0.000000000001064	 -19.950886897806278	  0.051990	  0.005199	  0.539486	    0.000000	 -0.195833	    0.008875	  0.000960	      28.31	
1:14:15 PM	     112.884	   0.184663841969633	  -0.000000000000029	   0.000159237635587	  -0.000060860889306	  -0.000000000009027	 -20.916939344320834	  0.051988	  0.005199	  0.505070	    0.000000	 -0.193039	    0.008748	  0.000960	      28.33	
1:14:27 PM	     143.845	   0.184654902813866	   0.000000000000042	   0.000151057848577	  -0.000060392093050	   0.000000000013030	 -21.791257217606915	  0.051991	  0.005199	  0.479103	    0.000000	 -0.191543	    0.008681	  0.000960	      28.30	
1:14:38 PM	     183.298	   0.184654974739340	   0.000000000000027	   0.000141564738484	  -0.000059226825142	   0.000000000008441	 -22.703104272824373	  0.051990	  0.005199	  0.448998	    0.000000	 -0.187849	    0.008513	  0.000960	      28.30	
1:14:49 PM	     233.572	   0.184642691135464	   0.000000000000193	   0.000132167337410	  -0.000058446864154	   0.000000000060017	 -23.855909030461852	  0.051991	  0.005199	  0.419184	    0.000000	 -0.185371	    0.008401	  0.000960	      28.27	
1:15:01 PM	     297.635	   0.184630783449636	  -0.000000000000045	   0.000123216865841	  -0.000057265811235	  -0.000000000014057	 -24.926944683113462	  0.051992	  0.005199	  0.390790	    0.000000	 -0.181622	    0.008232	  0.000960	      28.25	
1:15:12 PM	     379.269	   0.184618797402840	  -0.000000000000038	   0.000114232846814	  -0.000055835621527	  -0.000000000011755	 -26.048820316034426	  0.051995	  0.005199	  0.362278	    0.000000	 -0.177077	    0.008026	  0.000960	      28.22	
1:15:23 PM	     483.293	   0.184614063901030	   0.000000000000176	   0.000105494485334	  -0.000054342117624	   0.000000000054764	 -27.253814809735086	  0.051996	  0.005200	  0.334560	    0.000000	 -0.172338	    0.007812	  0.000960	      28.20	
1:15:35 PM	     615.848	   0.184611077291103	  -0.000000000000349	   0.000097009866047	  -0.000052660397331	  -0.000000000108345	 -28.494679994612010	  0.051992	  0.005199	  0.307677	    0.000000	 -0.167018	    0.007571	  0.000960	      28.22	
1:15:46 PM	     784.760	   0.184591287399855	   0.000000000000487	   0.000088687006941	  -0.000050758439766	   0.000000000151272	 -29.783900665889881	  0.051993	  0.005199	  0.281271	    0.000000	 -0.160981	    0.007298	  0.000960	      28.18	
1:15:57 PM	    1000.000	   0.184591617795122	  -0.000000000000571	   0.000082282393740	  -0.000055758108552	  -0.000000000177241	 -34.123265069004105	  0.051989	  0.005199	  0.260979	    0.000000	 -0.176851	    0.008016	  0.000960	      28.21	

Analysis method: Linear Fit
Sensor name: #1
λ = 0.1115 W/(m·K)
Δλ = 0.0068 W/(m·K)
R² = 0.9988099027461018
   Frequency	          Re(3ω) Fit	          Re(ΔT) Fit
          Hz	               V rms	               V rms
      10.000	   0.000256708041220	   0.814275083603020
      12.743	   0.000247257975017	   0.784302950347336
      16.238	   0.000237808880928	   0.754361798360071
      20.691	   0.000228360856010	   0.724375723575702
      26.367	   0.000218910111573	   0.694408573635344
      33.598	   0.000209461748863	   0.664424851056347
      42.813	   0.000200012530792	   0.634452718152358
      54.556	   0.000190562897565	   0.604438061361672
      69.519	   0.000181113790758	   0.574441495225817
      88.587	   0.000171664191791	   0.544470373555159
     112.884	   0.000162214959319	   0.514513649713168
     143.845	   0.000152765728196	   0.484519730610812
     183.298	   0.000143316445434	   0.454554084932437
     233.572	   0.000133867153927	   0.424574999182511
     297.635	   0.000124417847381	   0.394599365279543
     379.269	   0.000114968529549	   0.364611553105255
     483.293	   0.000105519228605	   0.334638674754093
     615.848	   0.000096069939133	   0.304695813108694
     784.760	   0.000086620623390	   0.274717621883134
    1000.000	   0.000077171323954	   0.244768415686368

Analysis method: Non-Linear Fit
Sensor name: #1
Non-Linear Fit Mode: Bidirectional
λ = 0.00041535561249188854
Δλ = 5.435201494129794
α = 3.5257907667555944E-14
Δα = 9.227467924404848E-10
   Frequency	          Re(ΔT) Fit	          Im(ΔT) Fit
          Hz	                   K	                   K
      10.000	   0.813495346663105	  -0.203286286308813
      12.743	   0.781933595145228	  -0.202066526230510
      16.238	   0.750546875929002	  -0.200711178339067
      20.691	   0.719355880837308	  -0.199207413392233
      26.367	   0.688370781794174	  -0.197540957113222
      33.598	   0.657633309395670	  -0.195698401833506
      42.813	   0.627160414467846	  -0.193664293164246
      54.556	   0.596983823128030	  -0.191423395418257
      69.519	   0.567139651010541	  -0.188960406065870
      88.587	   0.537660787829606	  -0.186259529800865
     112.884	   0.508589115870933	  -0.183305770653862
     143.845	   0.479965825449378	  -0.180084442095724
     183.298	   0.451836232308503	  -0.176582006485913
     233.572	   0.424248996052227	  -0.172786515636489
     297.635	   0.397255508376295	  -0.168688111296765
     379.269	   0.370909786163890	  -0.164279655189416
     483.293	   0.345268090333813	  -0.159557394906538
     615.848	   0.320388199283429	  -0.154521623659655
     784.760	   0.296328692985616	  -0.149177369806127
    1000.000	   0.273148328093599	  -0.143535130424677
